File: Messdaten/ExpDat_Dy_0.5Tb_0.5ScO3-2050-2x-1(alt).txt
#EXPORTTYPE:                 	DATA COMPARE                    	DATA COMPARE                    	DATA COMPARE                    	DATA COMPARE                    	DATA COMPARE
#FILE:                       	Dy_0.5Tb_0.5ScO3-2050-2x.ngb-sst	Dy_0.5Tb_0.5ScO3-2050-2x.ngb-sst	Tb_0.5Gd_0.5ScO3-2200-2x.ngb-sst	Tb_0.5Gd_0.5ScO3-2200-2x.ngb-sst	Al2O3-1950-1x.ngb-sst
#FORMAT:                     	NETZSCH5                        	NETZSCH5                        	NETZSCH5                        	NETZSCH5                        	NETZSCH5
#FTYPE:                      	ASCII                           	ASCII                           	ASCII                           	ASCII                           	ASCII
#IDENTITY:                   	cm-02                           	cm-02                           	cm-01                           	cm-01                           	cm-03
#DECIMAL:                    	POINT                           	POINT                           	POINT                           	POINT                           	POINT
#SEPARATOR:                  	TAB                             	TAB                             	TAB                             	TAB                             	TAB
#MTYPE:                      	DTA                             	DTA                             	DTA                             	DTA                             	DTA
#INSTRUMENT:                 	NETZSCH STA 429(CD)             	NETZSCH STA 429(CD)             	NETZSCH STA 429(CD)             	NETZSCH STA 429(CD)             	NETZSCH STA 429(CD)
#PROJECT:                    	HU-Praktikum                    	HU-Praktikum                    	HU-Praktikum                    	HU-Praktikum                    	HU-Praktikum
#DATE/TIME:                  	13.09.2017 15:30:53 (UTC+2)     	13.09.2017 15:30:53 (UTC+2)     	12.09.2017 14:36:56 (UTC+2)     	12.09.2017 14:36:56 (UTC+2)     	14.09.2017 10:00:20 (UTC+2)
#CORR. FILE:
#TEMPCAL:                    	TCALZERO.TCX                    	TCALZERO.TCX                    	TCALZERO.TCX                    	TCALZERO.TCX                    	TCALZERO.TCX
#SENSITIVITY:                	SENSZERO.EXX                    	SENSZERO.EXX                    	SENSZERO.EXX                    	SENSZERO.EXX                    	SENSZERO.EXX
#LABORATORY:                 	IKZ Berlin                      	IKZ Berlin                      	IKZ Berlin                      	IKZ Berlin                      	IKZ Berlin
#OPERATOR:                   	kl                              	kl                              	kl                              	kl                              	kl
#REMARK:                     	1 X-St?ck, mit Deckel           	1 X-St?ck, mit Deckel           	1 X-St?ck, mit Deckel           	1 X-St?ck, mit Deckel           	Probe vom 21.7.2016
#SAMPLE:                     	Dy_0.5Tb_0.5ScO3                	Dy_0.5Tb_0.5ScO3                	Tb_0.5Gd_0.5ScO3                	Tb_0.5Gd_0.5ScO3                	Al2O3-Kalibrierung
#SAMPLE MASS /mg:            	62.85                           	62.85                           	72.75                           	72.75                           	22.88
#MATERIAL:                   	Scandate                        	Scandate                        	Scandate                        	Scandate                        	Scandate
#REFERENCE:                  	empty                           	empty                           	empty                           	empty                           	empty
#REFERENCE MASS /mg:         	0                               	0                               	0                               	0                               	0
#TYPE OF CRUCIBLE:           	DTA/TG crucible Tungsten        	DTA/TG crucible Tungsten        	DTA/TG crucible Tungsten        	DTA/TG crucible Tungsten        	DTA/TG crucible Tungsten
#SAMPLE CRUCIBLE MASS /mg:   	330.67                          	330.67                          	426.25                          	426.25                          	390.36
#REFERENCE CRUCIBLE MASS /mg:	584.15                          	584.15                          	584.15                          	584.15                          	584.15
#PROTECTIVE GAS:             	<no gas>                        	<no gas>                        	<no gas>                        	<no gas>                        	<no gas>
#FLOW RATE:
#PURGE GAS 1:                	<no gas>                        	<no gas>                        	<no gas>                        	<no gas>                        	<no gas>
#FLOW RATE 1:
#GAS 1:                      	HELIUM                          	HELIUM                          	HELIUM                          	HELIUM                          	HELIUM
#FLOW RATE 1 /(ml/min):      	0                               	0                               	0                               	0                               	0
#GAS 2:                      	<no gas>                        	<no gas>                        	<no gas>                        	<no gas>                        	<no gas>
#FLOW RATE 2:
#TG RANGE /mg:               	30000                           	30000                           	30000                           	30000                           	30000
#TAU-R:                      	---                             	---                             	---                             	---                             	---
#CORR. CODE:                 	000                             	000                             	000                             	000                             	000
#EXO:                        	+1                              	+1                              	+1                              	+1                              	+1
#RANGE:                      	24.0›C/15.0(K/min)/2050.0›C     	500.0›C/15.0(K/min)/2050.0›C    	24.0›C/15.0(K/min)/2050.0›C     	500.0›C/15.0(K/min)/2050.0›C    	24.0›C/15.0(K/min)/2000.0›C
#SEGMENT:                    	S1/4                            	S3/4                            	S1/4                            	S3/4                            	S1/2
#SEG. 3:                     	                                	500.0›C/15.0(K/min)/2050.0›C    	                                	500.0›C/15.0(K/min)/2050.0›C
#SEG. 1:                     	24.0›C/15.0(K/min)/2050.0›C     	                                	24.0›C/15.0(K/min)/2050.0›C     	                                	24.0›C/15.0(K/min)/2000.0›C

##Temp./›C	DTA/(‘V/mg)	DTA/(‘V/mg)	DTA/(‘V/mg)	DTA/(‘V/mg)	DTA/(‘V/mg)
1813.26	0.84733	0.96214	0.89844	0.84198	3.03529
1814.26	0.84178	0.96136	0.89670	0.84148	3.03788
1815.26	0.84253	0.96191	0.89581	0.84034	3.03845
1816.26	0.84231	0.96278	0.89674	0.83861	3.03881
1817.26	0.84325	0.96301	0.89403	0.83937	3.03980
1818.26	0.84353	0.96293	0.89983	0.83946	3.04129
1819.26	0.84374	0.96229	0.90026	0.83906	3.04432
1820.26	0.84390	0.96291	0.89879	0.84522	3.04352
1821.26	0.84805	0.96224	0.90028	0.84566	3.04810
1822.26	0.86052	0.96197	0.90154	0.84231	3.05210
1823.26	0.86561	0.96081	0.90045	0.83736	3.05732
1824.26	0.85932	0.96250	0.89673	0.83731	3.05861
1825.26	0.85115	0.96371	0.89500	0.83744	3.05919
1826.26	0.85027	0.96417	0.89838	0.83583	3.06250
1827.26	0.85638	0.96444	0.89654	0.83699	3.06689
1828.26	0.85896	0.96423	0.89261	0.83734	3.07016
1829.26	0.86553	0.96547	0.89078	0.83553	3.07419
1830.26	0.86706	0.96649	0.89301	0.84459	3.07849
1831.26	0.86514	0.96820	0.89356	0.84043	3.08515
1832.26	0.87013	0.96798	0.89431	0.83210	3.08965
1833.26	0.87782	0.96621	0.89399	0.83031	3.09524
1834.26	0.88171	0.96541	0.89438	0.82945	3.09678
1835.26	0.88137	0.96647	0.89271	0.82921	3.09633
1836.26	0.87597	0.96693	0.89069	0.82938	3.09912
1837.26	0.87536	0.96641	0.89090	0.83071	3.10127
1838.26	0.87748	0.96566	0.89171	0.83067	3.10404
1839.26	0.88038	0.96511	0.89401	0.83037	3.10718
1840.26	0.88338	0.96428	0.89211	0.83026	3.10977
1841.26	0.88435	0.96474	0.89239	0.83100	3.11234
1842.26	0.87806	0.96677	0.89493	0.83101	3.11075
1843.26	0.87639	0.96750	0.89259	0.82926	3.11064
1844.26	0.88746	0.96793	0.89176	0.82663	3.10874
1845.26	0.89294	0.96698	0.89342	0.82553	3.10965
1846.26	0.89708	0.96716	0.88978	0.82499	3.10869
1847.26	0.89968	0.96630	0.88878	0.82413	3.11365
1848.26	0.89711	0.96752	0.88889	0.82259	3.11160
1849.26	0.89642	0.96909	0.88955	0.83078	3.10823
1850.26	0.89646	0.96890	0.88951	0.83885	3.10424
1851.26	0.89835	0.97059	0.88938	0.83651	3.10356
1852.26	0.89780	0.97193	0.88799	0.83670	3.10084
1853.26	0.89672	0.97286	0.88871	0.83576	3.09674
1854.26	0.89998	0.97401	0.88814	0.83790	3.08897
1855.26	0.89929	0.97539	0.88584	0.83275	3.07787
1856.26	0.89725	0.97576	0.88368	0.83085	3.03236
1857.26	0.89619	0.97650	0.88500	0.82156	2.95980
1858.26	0.89319	0.97642	0.88522	0.81723	2.87320
1859.26	0.89531	0.97746	0.88510	0.81545	2.77902
1860.26	0.89387	0.97830	0.88445	0.81811	2.68939
1861.26	0.89273	0.97903	0.88597	0.81813	2.59163
1862.26	0.89405	0.97979	0.88616	0.81848	2.49518
1863.26	0.89219	0.98103	0.88722	0.81875	2.39840
1864.26	0.89295	0.98206	0.88759	0.82148	2.30787
1865.26	0.89196	0.98172	0.88772	0.82294	2.23205
1866.26	0.88829	0.98144	0.88622	0.82160	2.18069
1867.26	0.88805	0.98261	0.88618	0.82088	2.16675
1868.26	0.88618	0.98303	0.88533	0.82054	2.19275
1869.26	0.88271	0.98283	0.88593	0.82029	2.27935
1870.26	0.88183	0.98354	0.88632	0.82057	2.52385
1871.26	0.88020	0.98106	0.88706	0.81981	3.02263
1872.26	0.87862	0.97788	0.88769	0.82479	3.07026
1873.26	0.87722	0.97440	0.88798	0.83419	3.07251
1874.26	0.87435	0.97231	0.88784	0.83496	3.07161
1875.26	0.87102	0.97432	0.88807	0.83367	3.07484
1876.26	0.86609	0.97683	0.88857	0.83517	3.07555
1877.26	0.86898	0.97970	0.88681	0.83526	3.07538
1878.26	0.87196	0.98228	0.88738	0.83323	3.07705
1879.26	0.87290	0.98234	0.88787	0.83070	3.07961
1880.26	0.87244	0.98374	0.89018	0.83087	3.08137
1881.26	0.87233	0.98117	0.88938	0.82848	3.08046
1882.26	0.87186	0.98125	0.88943	0.82607	3.07971
1883.26	0.86990	0.98259	0.88923	0.82013	3.08276
1884.26	0.87008	0.98369	0.88840	0.81593	3.08144
1885.26	0.86782	0.98323	0.88831	0.82036	3.08018
1886.26	0.86911	0.98443	0.88734	0.81805	3.07847
1887.26	0.86720	0.98531	0.88659	0.81885	3.07836
1888.26	0.86728	0.98508	0.88792	0.82648	3.07775
1889.26	0.86682	0.98526	0.89045	0.83727	3.07857
1890.26	0.86754	0.98440	0.89093	0.83952	3.07830
1891.26	0.86697	0.98365	0.89077	0.84095	3.07834
1892.26	0.86609	0.98319	0.89169	0.83782	3.07834
1893.26	0.86941	0.98299	0.89387	0.84196	3.07834
1894.26	0.87342	0.98348	0.89462	0.84329	3.07834
1895.26	0.87642	0.98343	0.89669	0.84261	3.07834
1896.26	0.87569	0.98215	0.89721	0.84316	3.07834
1897.26	0.87601	0.98161	0.89880	0.84340	3.07834
1898.26	0.87660	0.98219	0.89676	0.84393	3.07834
1899.26	0.87769	0.97983	0.89876	0.84333	3.07834
1900.26	0.87619	0.97920	0.89962	0.84201	3.07834
1901.26	0.87572	0.97825	0.89914	0.84071	3.07834
1902.26	0.87551	0.97849	0.89882	0.84008	3.07834
1903.26	0.87463	0.97671	0.89893	0.84007	3.07834
1904.26	0.87576	0.97544	0.89931	0.83793	3.07834
1905.26	0.87461	0.97269	0.89720	0.83751	3.07834
1906.26	0.87361	0.96884	0.89613	0.83693	3.07834
1907.26	0.87224	0.96557	0.89649	0.83600	3.07834
1908.26	0.87105	0.96022	0.89505	0.83485	3.07834
1909.26	0.86992	0.95402	0.89220	0.83409
1910.26	0.86841	0.95013	0.89016	0.83188
1911.26	0.86746	0.93533	0.88679	0.83045
1912.26	0.86747	0.92150	0.88251	0.83047
1913.26	0.86202	0.90653	0.87904	0.83007
1914.26	0.86115	0.89247	0.87494	0.83071
1915.26	0.85728	0.87970	0.87111	0.83121
1916.26	0.84614	0.86340	0.86893	0.82900
1917.26	0.83731	0.85178	0.86423	0.82698
1918.26	0.82857	0.83535	0.86122	0.82564
1919.26	0.81723	0.81279	0.85904	0.82482
1920.26	0.80209	0.79435	0.85735	0.82671
1921.26	0.78661	0.78428	0.85484	0.82365
1922.26	0.72355	0.76210	0.85259	0.82115
1923.26	0.69087	0.74700	0.85206	0.82199
1924.26	0.64928	0.74124	0.85003	0.82238
1925.26	0.59614	0.75187	0.84792	0.82090
1926.26	0.56226	0.78584	0.84712	0.81965
1927.26	0.54189	0.92020	0.84558	0.81749
1928.26	0.52909	0.98053	0.84431	0.81637
1929.26	0.51482	0.98279	0.84450	0.81464
1930.26	0.55202	0.98363	0.84073	0.81442
1931.26	0.65479	0.98343	0.83949	0.80994
1932.26	0.70927	0.97896	0.83924	0.80660
1933.26	0.75725	0.97691	0.83990	0.80281
1934.26	0.86163	0.97576	0.84074	0.80014
1935.26	0.87154	0.97395	0.84020	0.79570
1936.26	0.87203	0.97351	0.83926	0.79021
1937.26	0.87301	0.97242	0.83755	0.79230
1938.26	0.87476	0.97273	0.83608	0.78310
1939.26	0.87546	0.97263	0.83499	0.77688
1940.26	0.87678	0.97194	0.83369	0.76838
1941.26	0.87665	0.97228	0.83299	0.76139
1942.26	0.87391	0.97170	0.83328	0.75443
1943.26	0.87395	0.96952	0.83198	0.74730
1944.26	0.87402	0.96941	0.82654	0.73926
1945.26	0.87403	0.97037	0.82281	0.72967
1946.26	0.87412	0.97029	0.82321	0.72165
1947.26	0.87242	0.96945	0.81993	0.71074
1948.26	0.87267	0.96964	0.81967	0.70004
1949.26	0.86986	0.96870	0.81711	0.69078
1950.26	0.86728	0.96784	0.81481	0.67980
1951.26	0.86460	0.96683	0.80963	0.66907
1952.26	0.86431	0.96727	0.80586	0.65778
1953.26	0.86162	0.96597	0.80509	0.65016
1954.26	0.85716	0.96519	0.79630	0.64826
1955.26	0.85542	0.96471	0.79540	0.64899
1956.26	0.85486	0.96416	0.78896	0.65256
1957.26	0.85272	0.96336	0.78371	0.66959
1958.26	0.85654	0.96260	0.77244	0.69988
1959.26	0.85745	0.96263	0.76371	0.75266
1960.26	0.85771	0.96249	0.75408	0.81834
1961.26	0.85751	0.96244	0.74991	0.82234
1962.26	0.85706	0.96199	0.73410	0.82009
1963.26	0.85622	0.96109	0.70847	0.81922
1964.26	0.85678	0.96076	0.69149	0.81912
1965.26	0.85544	0.96058	0.67317	0.81896
1966.26	0.85374	0.96052	0.65530	0.81892
1967.26	0.85231	0.96086	0.61038	0.81862
1968.26	0.85153	0.95895	0.57666	0.81720
1969.26	0.85092	0.95796	0.55891	0.81610
1970.26	0.84818	0.95042	0.55516	0.81475
1971.26	0.84868	0.94487	0.56735	0.81434
1972.26	0.84712	0.94224	0.62707	0.81501
1973.26	0.84657	0.94076	0.64915	0.81521
1974.26	0.84431	0.93930	0.66703	0.81487
1975.26	0.84386	0.93744	0.68511	0.81608
1976.26	0.84293	0.93559	0.74236	0.81453
1977.26	0.83857	0.93391	0.80419	0.81219
1978.26	0.83427	0.93317	0.80537	0.81313
1979.26	0.83241	0.93193	0.80647	0.81423
1980.26	0.83016	0.93106	0.80547	0.81566
1981.26	0.82866	0.93011	0.80404	0.81515
1982.26	0.82692	0.92944	0.79662	0.81380
1983.26	0.82658	0.92847	0.79556	0.81337
1984.26	0.82501	0.92771	0.79609	0.81025
1985.26	0.82295	0.92652	0.79693	0.80863
1986.26	0.82028	0.92574	0.79558	0.80851
1987.26	0.81586	0.92594	0.79502	0.80835
1988.26	0.81276	0.92407	0.79473	0.80758
1989.26	0.81164	0.92301	0.79387	0.80769
1990.26	0.81020	0.92193	0.79319	0.80756
1991.26	0.80850	0.92108	0.79198	0.80606
1992.26	0.80904	0.91977	0.79073	0.80438
1993.26	0.80762	0.92019	0.78996	0.80278
1994.26	0.80732	0.91838	0.79026	0.80285
1995.26	0.80611	0.91524	0.79171	0.80282
1996.26	0.80361	0.91344	0.79143	0.80217
1997.26	0.80214	0.91161	0.79047	0.80122
1998.26	0.80278	0.90954	0.79048	0.79917
1999.26	0.80027	0.90857	0.79023	0.79805
2000.26	0.79597	0.90767	0.78880	0.79702
2001.26	0.79423	0.90647	0.78825	0.79634
2002.26	0.79318	0.90483	0.78693	0.79467
2003.26	0.79128	0.90332	0.78554	0.79420
2004.26	0.79257	0.90290	0.78453	0.79541
2005.26	0.79241	0.90212	0.78261	0.79651