File: Messdaten/ExpDat_Tb_0.5Gd_0.5ScO3-2200-2x-3(unsere).txt
#EXPORTTYPE:                 	DATA COMPARE                    	DATA COMPARE                    	DATA COMPARE                    	DATA COMPARE                    	DATA COMPARE
#FILE:                       	Dy_0.5Tb_0.5ScO3-2050-2x.ngb-sst	Dy_0.5Tb_0.5ScO3-2050-2x.ngb-sst	Tb_0.5Gd_0.5ScO3-2200-2x.ngb-sst	Tb_0.5Gd_0.5ScO3-2200-2x.ngb-sst	Al2O3-1950-1x.ngb-sst
#FORMAT:                     	NETZSCH5                        	NETZSCH5                        	NETZSCH5                        	NETZSCH5                        	NETZSCH5
#FTYPE:                      	ASCII                           	ASCII                           	ASCII                           	ASCII                           	ASCII
#IDENTITY:                   	cm-02                           	cm-02                           	cm-01                           	cm-01                           	cm-03
#DECIMAL:                    	POINT                           	POINT                           	POINT                           	POINT                           	POINT
#SEPARATOR:                  	TAB                             	TAB                             	TAB                             	TAB                             	TAB
#MTYPE:                      	DTA                             	DTA                             	DTA                             	DTA                             	DTA
#INSTRUMENT:                 	NETZSCH STA 429(CD)             	NETZSCH STA 429(CD)             	NETZSCH STA 429(CD)             	NETZSCH STA 429(CD)             	NETZSCH STA 429(CD)
#PROJECT:                    	HU-Praktikum                    	HU-Praktikum                    	HU-Praktikum                    	HU-Praktikum                    	HU-Praktikum
#DATE/TIME:                  	13.09.2017 15:30:53 (UTC+2)     	13.09.2017 15:30:53 (UTC+2)     	12.09.2017 14:36:56 (UTC+2)     	12.09.2017 14:36:56 (UTC+2)     	14.09.2017 10:00:20 (UTC+2)
#CORR. FILE:
#TEMPCAL:                    	TCALZERO.TCX                    	TCALZERO.TCX                    	TCALZERO.TCX                    	TCALZERO.TCX                    	TCALZERO.TCX
#SENSITIVITY:                	SENSZERO.EXX                    	SENSZERO.EXX                    	SENSZERO.EXX                    	SENSZERO.EXX                    	SENSZERO.EXX
#LABORATORY:                 	IKZ Berlin                      	IKZ Berlin                      	IKZ Berlin                      	IKZ Berlin                      	IKZ Berlin
#OPERATOR:                   	kl                              	kl                              	kl                              	kl                              	kl
#REMARK:                     	1 X-St?ck, mit Deckel           	1 X-St?ck, mit Deckel           	1 X-St?ck, mit Deckel           	1 X-St?ck, mit Deckel           	Probe vom 21.7.2016
#SAMPLE:                     	Dy_0.5Tb_0.5ScO3                	Dy_0.5Tb_0.5ScO3                	Tb_0.5Gd_0.5ScO3                	Tb_0.5Gd_0.5ScO3                	Al2O3-Kalibrierung
#SAMPLE MASS /mg:            	62.85                           	62.85                           	72.75                           	72.75                           	22.88
#MATERIAL:                   	Scandate                        	Scandate                        	Scandate                        	Scandate                        	Scandate
#REFERENCE:                  	empty                           	empty                           	empty                           	empty                           	empty
#REFERENCE MASS /mg:         	0                               	0                               	0                               	0                               	0
#TYPE OF CRUCIBLE:           	DTA/TG crucible Tungsten        	DTA/TG crucible Tungsten        	DTA/TG crucible Tungsten        	DTA/TG crucible Tungsten        	DTA/TG crucible Tungsten
#SAMPLE CRUCIBLE MASS /mg:   	330.67                          	330.67                          	426.25                          	426.25                          	390.36
#REFERENCE CRUCIBLE MASS /mg:	584.15                          	584.15                          	584.15                          	584.15                          	584.15
#PROTECTIVE GAS:             	<no gas>                        	<no gas>                        	<no gas>                        	<no gas>                        	<no gas>
#FLOW RATE:
#PURGE GAS 1:                	<no gas>                        	<no gas>                        	<no gas>                        	<no gas>                        	<no gas>
#FLOW RATE 1:
#GAS 1:                      	HELIUM                          	HELIUM                          	HELIUM                          	HELIUM                          	HELIUM
#FLOW RATE 1 /(ml/min):      	0                               	0                               	0                               	0                               	0
#GAS 2:                      	<no gas>                        	<no gas>                        	<no gas>                        	<no gas>                        	<no gas>
#FLOW RATE 2:
#TG RANGE /mg:               	30000                           	30000                           	30000                           	30000                           	30000
#TAU-R:                      	---                             	---                             	---                             	---                             	---
#CORR. CODE:                 	000                             	000                             	000                             	000                             	000
#EXO:                        	+1                              	+1                              	+1                              	+1                              	+1
#RANGE:                      	24.0›C/15.0(K/min)/2050.0›C     	500.0›C/15.0(K/min)/2050.0›C    	24.0›C/15.0(K/min)/2050.0›C     	500.0›C/15.0(K/min)/2050.0›C    	24.0›C/15.0(K/min)/2000.0›C
#SEGMENT:                    	S1/4                            	S3/4                            	S1/4                            	S3/4                            	S1/2
#SEG. 3:                     	                                	500.0›C/15.0(K/min)/2050.0›C    	                                	500.0›C/15.0(K/min)/2050.0›C
#SEG. 1:                     	24.0›C/15.0(K/min)/2050.0›C     	                                	24.0›C/15.0(K/min)/2050.0›C     	                                	24.0›C/15.0(K/min)/2000.0›C

##Temp./›C	DTA/(‘V/mg)	DTA/(‘V/mg)	DTA/(‘V/mg)	DTA/(‘V/mg)	DTA/(‘V/mg)
  20.60200	 3.5800e-003	           	 3.5567e-003	           	 1.0216e-002
  35.10200	-2.5467e-002	           	-2.3198e-002	           	-8.6330e-002
  49.60200	-9.1833e-003	           	-7.5798e-003	           	-3.4551e-002
  64.10200	-1.8414e-002	           	-1.6132e-002	           	-5.9634e-002
  78.60200	-1.5166e-002	           	-1.3065e-002	           	-4.7605e-002
  93.10200	-1.9055e-002	           	-1.4872e-002	           	-5.7369e-002
 107.602	-2.2875e-002	           	-1.6865e-002	           	-6.3239e-002
 122.102	-2.6673e-002	           	-1.9726e-002	           	-6.7774e-002
 136.602	-3.1215e-002	           	-2.1295e-002	           	-7.1460e-002
 151.102	-3.6833e-002	           	-2.4018e-002	           	-7.6832e-002
 165.602	-4.2759e-002	           	-2.5612e-002	           	-8.0891e-002
 180.102	-4.9924e-002	           	-2.7238e-002	           	-8.4879e-002
 194.602	-5.7959e-002	           	-3.2482e-002	           	-9.5409e-002
 209.102	-6.7277e-002	           	-3.5551e-002	           	-9.4264e-002
 223.602	-8.1064e-002	           	-3.7668e-002	           	-9.3973e-002
 238.102	-9.0735e-002	           	-4.2428e-002	           	-9.2423e-002
 252.602	    -0.10151	           	-4.5004e-002	           	-9.2180e-002
 267.102	    -0.11309	           	-4.7908e-002	           	-9.3758e-002
 281.602	    -0.12435	           	-5.2054e-002	           	-8.6753e-002
 296.102	    -0.13762	           	-5.4569e-002	           	-9.1746e-002
 310.602	    -0.15081	           	-5.9080e-002	           	-8.1937e-002
 325.102	    -0.16299	           	-6.3921e-002	           	-7.5866e-002
 339.602	    -0.17722	           	-6.7644e-002	           	-6.9663e-002
 354.102	    -0.18945	           	-7.2783e-002	           	-5.6347e-002
 368.602	    -0.20257	           	-7.6450e-002	           	-5.6048e-002
 383.102	    -0.21495	           	-8.1516e-002	           	-3.1748e-002
 397.602	    -0.22840	           	-8.6486e-002	           	-2.2132e-002
 412.102	    -0.24359	           	-8.9533e-002	           	-1.7559e-003
 426.602	    -0.25659	           	-9.6309e-002	           	 1.6251e-002
 441.102	    -0.26735	           	    -0.10027	           	 3.6524e-002
 455.602	    -0.27874	           	    -0.10433	           	 6.1002e-002
 470.102	    -0.28704	           	    -0.10951	           	 8.2977e-002
 484.602	    -0.29834	    0.13276	    -0.11198	    0.15182	     0.10724
 499.102	    -0.30360	3.8214e-002	    -0.11515	4.8310e-002	     0.14781
 513.602	    -0.31187	6.1631e-002	    -0.11616	7.4229e-002	     0.17721
 528.102	    -0.31315	5.9629e-002	    -0.11807	6.5266e-002	     0.21661
 542.602	    -0.31872	6.6221e-002	    -0.11326	7.2743e-002	     0.25847
 557.102	    -0.32012	7.8813e-002	    -0.11207	8.6247e-002	     0.30422
 571.602	    -0.31713	9.2466e-002	    -0.10569	9.9392e-002	     0.35381
 586.102	    -0.31100	    0.10716	-9.6757e-002	    0.11201	     0.41727
 600.602	    -0.29781	    0.12447	-8.7876e-002	    0.12680	     0.48886
 615.102	    -0.27689	    0.13897	-7.6898e-002	    0.13911	     0.58251
 629.602	    -0.24402	    0.15636	-5.6870e-002	    0.15195	     0.66652
 644.102	    -0.20484	    0.17804	-2.9147e-002	    0.16884	     0.78256
 658.602	    -0.15302	    0.19528	 1.0764e-002	    0.18663	     0.91040
 673.102	-9.3992e-002	    0.21032	 6.5738e-002	    0.20609	     1.04320
 687.602	-2.7474e-002	    0.22963	     0.12499	    0.22085	     1.18965
 702.102	 3.6857e-002	    0.24758	     0.18714	    0.23834	     1.34883
 716.602	 8.9800e-002	    0.26604	     0.24269	    0.25785	     1.50938
 731.102	     0.13359	    0.28728	     0.28241	    0.27678	     1.65409
 745.602	     0.16661	    0.30790	     0.30232	    0.27059	     1.77994
 760.102	     0.19673	    0.33732	     0.31011	    0.28373	     1.90210
 774.602	     0.22721	    0.36026	     0.31051	    0.30742	     2.03602
 789.102	     0.26788	    0.38398	     0.31388	    0.32359	     2.18167
 803.602	     0.31691	    0.40828	     0.31255	    0.34371	     2.34608
 818.102	     0.38577	    0.43300	     0.32909	    0.36545	     2.52028
 832.602	     0.46408	    0.45605	     0.34493	    0.38409	     2.78028
 847.102	     0.59128	    0.48066	     0.36771	    0.40136	     3.12702
 861.602	     0.73474	    0.50410	     0.39774	    0.42020	     3.57608
 876.102	     0.86885	    0.52813	     0.43653	    0.44206	     3.94988
 890.602	     0.92541	    0.54461	     0.49074	    0.46174	     3.98676
 905.102	     0.94542	    0.56206	     0.57564	    0.48555	     3.82771
 919.602	     0.90401	    0.58233	     0.68797	    0.50742	     3.52013
 934.102	     0.82923	    0.60208	     0.79557	    0.52733	     3.09550
 948.602	     0.71510	    0.62358	     0.87044	    0.54567	     2.51461
 963.102	     0.56352	    0.64996	     0.91436	    0.55484	     1.84279
 977.602	     0.56180	    0.66206	     0.93989	    0.57274	     1.72751
 992.102	     0.55558	    0.66852	     0.94659	    0.59515	     1.75432
1006.6	     0.50304	    0.68671	     0.93580	    0.60992	     1.83311
1021.1	     0.43995	    0.70577	     0.96854	    0.63382	     1.94059
1035.6	     0.45503	    0.72248	     1.01603	    0.63882	     2.05486
1050.1	     0.47568	    0.73320	     1.08124	    0.63225	     2.10331
1064.6	     0.47271	    0.75040	     0.95346	    0.64718	     2.14817
1079.1	     0.47843	    0.74952	     0.55906	    0.67257	     2.19444
1093.6	     0.51585	    0.76781	     0.48067	    0.70701	     2.23436
1108.1	     0.55396	    0.76771	     0.50563	    0.73367	     2.30263
1122.6	     0.56130	    0.77880	     0.53311	    0.74376	     2.35397
1137.1	     0.57453	    0.79150	     0.54364	    0.75075	     2.38090
1151.6	     0.58896	    0.78999	     0.56629	    0.77973	     2.61065
1166.1	     0.58771	    0.80701	     0.59230	    0.79352	     2.62238
1180.6	     0.62968	    0.83934	     0.60147	    0.79622	     2.63334
1195.1	     0.64160	    0.87709	     0.61717	    0.80153	     2.67525
1209.6	     0.65355	    0.88331	     0.62275	    0.80640	     2.69233
1224.1	     0.65551	    0.88704	     0.61978	    0.82067	     2.70816
1238.6	     0.66902	    0.88231	     0.63998	    0.83073	     2.77178
1253.1	     0.67270	    0.90326	     0.64782	    0.84110	     2.78583
1267.6	     0.68807	    0.90770	     0.65289	    0.84275	     2.80634
1282.1	     0.79453	    0.89712	     0.63821	    0.83572	     2.80309
1296.6	     0.81436	    0.88883	     0.66559	    0.83462	     2.84272
1311.1	     0.82151	    0.91266	     0.66774	    0.83556	     2.87481
1325.6	     0.86260	    0.93628	     0.71327	    0.81866	     2.94472
1340.1	     0.86239	    0.93629	     0.72880	    0.82734	     2.94408
1354.6	     0.82254	    0.94395	     0.72554	    0.83093	     2.99008
1369.1	     0.78893	    0.96666	     0.73156	    0.83171	     2.94992
1383.6	     0.77940	    0.96893	     0.72805	    0.83793	     3.10370
1398.1	     0.80954	    0.96037	     0.77660	    0.83933	     3.03589
1412.6	     0.79213	    0.97491	     0.75264	    0.87534	     3.10451
1427.1	     0.78861	    0.97096	     0.85432	    0.92295	     3.14552
1441.6	     0.79428	    0.98134	     0.85569	    0.93833	     3.17112
1456.1	     0.79842	    0.98507	     0.86320	    0.95556	     3.20048
1470.6	     0.82125	    1.00368	     0.85096	    0.92346	     3.21502
1485.1	     0.81685	    1.02429	     0.88462	    0.93189	     3.23644
1499.6	     0.81447	    1.02178	     0.89867	    0.96146	     3.23376
1514.1	     0.80900	    1.01716	     0.90761	    0.96201	     3.26053
1528.6	     0.81582	    1.03546	     0.89782	    0.93286	     3.26132
1543.1	     0.82756	    1.03828	     0.89871	    0.91943	     3.26662
1557.6	     0.82354	    1.04047	     0.88075	    0.91220	     3.26720
1572.1	     0.80861	    1.04472	     0.89312	    0.92699	     3.29372
1586.6	     0.88958	    1.04549	     0.89324	    0.90597	     3.30505
1601.1	     0.86791	    1.04680	     0.89333	    0.90547	     3.31364
1615.6	     0.88462	    1.04689	     0.89139	    0.89840	     3.27941
1630.1	     0.89111	    1.04671	     0.88049	    0.89105	     3.26258
1644.6	     0.88302	    1.04211	     0.87824	    0.87127	     3.19996
1659.1	     0.86348	    1.03729	     0.88909	    0.89123	     3.17490
1673.6	     0.84088	    1.04348	     0.87730	    0.87527	     3.16267
1688.1	     0.84346	    1.04060	     0.88782	    0.86602	     3.12511
1702.6	     0.84680	    1.03937	     0.88123	    0.85113	     3.10585
1717.1	     0.83139	    1.01727	     0.87217	    0.83457	     3.08742
1731.6	     0.83030	    1.00590	     0.90825	    0.83659	     3.06452
1746.1	     0.82079	    0.99837	     0.91611	    0.83784	     3.03415
1760.6	     0.82864	    0.99135	     0.92342	    0.84577	     3.01045
1775.1	     0.82574	    0.98089	     0.91454	    0.84738	     2.99542
1789.6	     0.84231	    0.96558	     0.90943	    0.84098	     2.99044
1804.1	     0.84092	    0.95951	     0.90097	    0.83701	     3.00923
1818.6	     0.84379	    0.96270	     0.90090	    0.83940	     3.04315
1833.1	     0.87617	    0.96650	     0.89389	    0.83051	     3.09471
1847.6	     0.89935	    0.96633	     0.88874	    0.82334	     3.11337
1862.1	     0.89417	    0.97985	     0.88596	    0.81837	     2.51002
1876.6	     0.86559	    0.97717	     0.88843	    0.83586	     3.07583
1891.1	     0.86743	    0.98371	     0.89076	    0.84096	     3.07834
1905.6	     0.87384	    0.97114	     0.89652	    0.83715	     3.07834
1920.1	     0.80521	    0.79713	     0.85767	    0.82718
1934.6	     0.86833	    0.97510	     0.84073	    0.79902
1949.1	     0.87022	    0.96862	     0.81749	    0.69248
1963.6	     0.85763	    0.96053	     0.70212	    0.81965
1978.1	     0.83480	    0.93334	     0.80561	    0.81317
1992.6	     0.80836	    0.91969	     0.79005	    0.80366
2007.1	     0.79026	    0.90038	     0.77994	    0.80099
2021.6	     0.76700	    0.87829	     0.75500	    0.78555
2035.1	     0.73494	    0.85802	     0.73141	    0.76180